# Reactor spectrum for antineutrino energy
1.800000 1.468902
1.810000 1.459886
1.820000 1.450955
1.830000 1.442107
1.840000 1.433340
1.850000 1.424653
1.860000 1.416043
1.870000 1.407509
1.880000 1.399049
1.890000 1.390663
1.900000 1.382347
1.910000 1.374100
1.920000 1.365922
1.930000 1.357810
1.940000 1.349763
1.950000 1.341780
1.960000 1.333859
1.970000 1.326000
1.980000 1.318200
1.990000 1.310458
2.000000 1.302774
2.010000 1.295146
2.020000 1.287573
2.030000 1.280054
2.040000 1.272587
2.050000 1.265172
2.060000 1.257808
2.070000 1.250494
2.080000 1.243228
2.090000 1.236009
2.100000 1.228838
2.110000 1.221712
2.120000 1.214631
2.130000 1.207595
2.140000 1.200601
2.150000 1.193650
2.160000 1.186741
2.170000 1.179873
2.180000 1.173045
2.190000 1.166256
2.200000 1.159506
2.210000 1.152793
2.220000 1.146119
2.230000 1.139480
2.240000 1.132878
2.250000 1.126312
2.260000 1.119780
2.270000 1.113282
2.280000 1.106818
2.290000 1.100388
2.300000 1.093989
2.310000 1.087623
2.320000 1.081289
2.330000 1.074985
2.340000 1.068712
2.350000 1.062470
2.360000 1.056257
2.370000 1.050073
2.380000 1.043918
2.390000 1.037792
2.400000 1.031693
2.410000 1.025622
2.420000 1.019579
2.430000 1.013562
2.440000 1.007572
2.450000 1.001609
2.460000 0.995671
2.470000 0.989759
2.480000 0.983872
2.490000 0.978010
2.500000 0.972173
2.510000 0.966360
2.520000 0.960571
2.530000 0.954806
2.540000 0.949065
2.550000 0.943348
2.560000 0.937653
2.570000 0.931982
2.580000 0.926333
2.590000 0.920706
2.600000 0.915103
2.610000 0.909521
2.620000 0.903961
2.630000 0.898423
2.640000 0.892906
2.650000 0.887411
2.660000 0.881938
2.670000 0.876485
2.680000 0.871054
2.690000 0.865643
2.700000 0.860253
2.710000 0.854884
2.720000 0.849535
2.730000 0.844206
2.740000 0.838898
2.750000 0.833610
2.760000 0.828342
2.770000 0.823094
2.780000 0.817865
2.790000 0.812657
2.800000 0.807468
2.810000 0.802299
2.820000 0.797149
2.830000 0.792019
2.840000 0.786909
2.850000 0.781817
2.860000 0.776745
2.870000 0.771693
2.880000 0.766659
2.890000 0.761645
2.900000 0.756649
2.910000 0.751673
2.920000 0.746716
2.930000 0.741778
2.940000 0.736859
2.950000 0.731959
2.960000 0.727078
2.970000 0.722215
2.980000 0.717372
2.990000 0.712547
3.000000 0.707742
3.010000 0.702955
3.020000 0.698187
3.030000 0.693438
3.040000 0.688708
3.050000 0.683996
3.060000 0.679303
3.070000 0.674630
3.080000 0.669975
3.090000 0.665339
3.100000 0.660721
3.110000 0.656123
3.120000 0.651543
3.130000 0.646983
3.140000 0.642441
3.150000 0.637918
3.160000 0.633414
3.170000 0.628929
3.180000 0.624462
3.190000 0.620015
3.200000 0.615587
3.210000 0.611177
3.220000 0.606787
3.230000 0.602415
3.240000 0.598063
3.250000 0.593730
3.260000 0.589415
3.270000 0.585120
3.280000 0.580844
3.290000 0.576587
3.300000 0.572349
3.310000 0.568130
3.320000 0.563931
3.330000 0.559751
3.340000 0.555589
3.350000 0.551448
3.360000 0.547325
3.370000 0.543222
3.380000 0.539138
3.390000 0.535073
3.400000 0.531027
3.410000 0.527001
3.420000 0.522995
3.430000 0.519007
3.440000 0.515039
3.450000 0.511091
3.460000 0.507162
3.470000 0.503252
3.480000 0.499362
3.490000 0.495492
3.500000 0.491641
3.510000 0.487809
3.520000 0.483997
3.530000 0.480204
3.540000 0.476431
3.550000 0.472678
3.560000 0.468944
3.570000 0.465230
3.580000 0.461535
3.590000 0.457860
3.600000 0.454205
3.610000 0.450569
3.620000 0.446953
3.630000 0.443356
3.640000 0.439779
3.650000 0.436222
3.660000 0.432684
3.670000 0.429166
3.680000 0.425667
3.690000 0.422189
3.700000 0.418729
3.710000 0.415290
3.720000 0.411870
3.730000 0.408469
3.740000 0.405089
3.750000 0.401728
3.760000 0.398386
3.770000 0.395064
3.780000 0.391761
3.790000 0.388479
3.800000 0.385215
3.810000 0.381971
3.820000 0.378747
3.830000 0.375542
3.840000 0.372357
3.850000 0.369191
3.860000 0.366044
3.870000 0.362917
3.880000 0.359810
3.890000 0.356721
3.900000 0.353652
3.910000 0.350603
3.920000 0.347572
3.930000 0.344561
3.940000 0.341569
3.950000 0.338597
3.960000 0.335643
3.970000 0.332709
3.980000 0.329793
3.990000 0.326897
4.000000 0.324020
4.010000 0.321162
4.020000 0.318323
4.030000 0.315502
4.040000 0.312701
4.050000 0.309918
4.060000 0.307154
4.070000 0.304409
4.080000 0.301683
4.090000 0.298975
4.100000 0.296286
4.110000 0.293615
4.120000 0.290963
4.130000 0.288330
4.140000 0.285715
4.150000 0.283118
4.160000 0.280539
4.170000 0.277979
4.180000 0.275437
4.190000 0.272913
4.200000 0.270407
4.210000 0.267920
4.220000 0.265450
4.230000 0.262998
4.240000 0.260564
4.250000 0.258148
4.260000 0.255749
4.270000 0.253369
4.280000 0.251005
4.290000 0.248660
4.300000 0.246332
4.310000 0.244021
4.320000 0.241728
4.330000 0.239451
4.340000 0.237193
4.350000 0.234951
4.360000 0.232726
4.370000 0.230519
4.380000 0.228328
4.390000 0.226154
4.400000 0.223997
4.410000 0.221857
4.420000 0.219733
4.430000 0.217626
4.440000 0.215536
4.450000 0.213461
4.460000 0.211404
4.470000 0.209362
4.480000 0.207337
4.490000 0.205328
4.500000 0.203335
4.510000 0.201358
4.520000 0.199396
4.530000 0.197451
4.540000 0.195521
4.550000 0.193607
4.560000 0.191709
4.570000 0.189826
4.580000 0.187959
4.590000 0.186107
4.600000 0.184270
4.610000 0.182448
4.620000 0.180642
4.630000 0.178850
4.640000 0.177073
4.650000 0.175312
4.660000 0.173565
4.670000 0.171832
4.680000 0.170114
4.690000 0.168411
4.700000 0.166722
4.710000 0.165048
4.720000 0.163388
4.730000 0.161742
4.740000 0.160110
4.750000 0.158492
4.760000 0.156888
4.770000 0.155298
4.780000 0.153722
4.790000 0.152159
4.800000 0.150610
4.810000 0.149075
4.820000 0.147553
4.830000 0.146044
4.840000 0.144548
4.850000 0.143066
4.860000 0.141597
4.870000 0.140140
4.880000 0.138697
4.890000 0.137266
4.900000 0.135849
4.910000 0.134444
4.920000 0.133051
4.930000 0.131671
4.940000 0.130303
4.950000 0.128948
4.960000 0.127605
4.970000 0.126274
4.980000 0.124955
4.990000 0.123648
5.000000 0.122353
5.010000 0.121070
5.020000 0.119798
5.030000 0.118538
5.040000 0.117290
5.050000 0.116053
5.060000 0.114828
5.070000 0.113613
5.080000 0.112410
5.090000 0.111219
5.100000 0.110038
5.110000 0.108868
5.120000 0.107709
5.130000 0.106561
5.140000 0.105424
5.150000 0.104298
5.160000 0.103182
5.170000 0.102076
5.180000 0.100981
5.190000 0.099896
5.200000 0.098822
5.210000 0.097757
5.220000 0.096703
5.230000 0.095659
5.240000 0.094624
5.250000 0.093600
5.260000 0.092585
5.270000 0.091580
5.280000 0.090585
5.290000 0.089599
5.300000 0.088623
5.310000 0.087656
5.320000 0.086698
5.330000 0.085750
5.340000 0.084811
5.350000 0.083881
5.360000 0.082960
5.370000 0.082047
5.380000 0.081144
5.390000 0.080250
5.400000 0.079364
5.410000 0.078487
5.420000 0.077618
5.430000 0.076758
5.440000 0.075907
5.450000 0.075064
5.460000 0.074229
5.470000 0.073402
5.480000 0.072584
5.490000 0.071773
5.500000 0.070971
5.510000 0.070176
5.520000 0.069390
5.530000 0.068611
5.540000 0.067840
5.550000 0.067077
5.560000 0.066321
5.570000 0.065573
5.580000 0.064832
5.590000 0.064099
5.600000 0.063373
5.610000 0.062654
5.620000 0.061942
5.630000 0.061238
5.640000 0.060541
5.650000 0.059851
5.660000 0.059167
5.670000 0.058491
5.680000 0.057822
5.690000 0.057159
5.700000 0.056503
5.710000 0.055854
5.720000 0.055211
5.730000 0.054575
5.740000 0.053945
5.750000 0.053322
5.760000 0.052705
5.770000 0.052094
5.780000 0.051490
5.790000 0.050891
5.800000 0.050299
5.810000 0.049713
5.820000 0.049133
5.830000 0.048559
5.840000 0.047991
5.850000 0.047429
5.860000 0.046873
5.870000 0.046322
5.880000 0.045777
5.890000 0.045238
5.900000 0.044704
5.910000 0.044176
5.920000 0.043653
5.930000 0.043135
5.940000 0.042623
5.950000 0.042117
5.960000 0.041616
5.970000 0.041119
5.980000 0.040628
5.990000 0.040143
6.000000 0.039662
6.010000 0.039186
6.020000 0.038716
6.030000 0.038250
6.040000 0.037789
6.050000 0.037333
6.060000 0.036882
6.070000 0.036435
6.080000 0.035994
6.090000 0.035556
6.100000 0.035124
6.110000 0.034696
6.120000 0.034273
6.130000 0.033854
6.140000 0.033440
6.150000 0.033029
6.160000 0.032624
6.170000 0.032222
6.180000 0.031825
6.190000 0.031433
6.200000 0.031044
6.210000 0.030659
6.220000 0.030279
6.230000 0.029903
6.240000 0.029531
6.250000 0.029162
6.260000 0.028798
6.270000 0.028438
6.280000 0.028081
6.290000 0.027728
6.300000 0.027380
6.310000 0.027034
6.320000 0.026693
6.330000 0.026355
6.340000 0.026021
6.350000 0.025691
6.360000 0.025364
6.370000 0.025041
6.380000 0.024721
6.390000 0.024405
6.400000 0.024092
6.410000 0.023783
6.420000 0.023477
6.430000 0.023174
6.440000 0.022875
6.450000 0.022579
6.460000 0.022286
6.470000 0.021996
6.480000 0.021710
6.490000 0.021426
6.500000 0.021146
6.510000 0.020869
6.520000 0.020595
6.530000 0.020324
6.540000 0.020056
6.550000 0.019792
6.560000 0.019530
6.570000 0.019270
6.580000 0.019014
6.590000 0.018761
6.600000 0.018510
6.610000 0.018263
6.620000 0.018018
6.630000 0.017776
6.640000 0.017536
6.650000 0.017299
6.660000 0.017065
6.670000 0.016834
6.680000 0.016605
6.690000 0.016379
6.700000 0.016155
6.710000 0.015934
6.720000 0.015715
6.730000 0.015499
6.740000 0.015285
6.750000 0.015074
6.760000 0.014865
6.770000 0.014659
6.780000 0.014455
6.790000 0.014253
6.800000 0.014054
6.810000 0.013857
6.820000 0.013662
6.830000 0.013469
6.840000 0.013279
6.850000 0.013091
6.860000 0.012905
6.870000 0.012721
6.880000 0.012540
6.890000 0.012360
6.900000 0.012183
6.910000 0.012008
6.920000 0.011834
6.930000 0.011663
6.940000 0.011494
6.950000 0.011327
6.960000 0.011162
6.970000 0.010999
6.980000 0.010837
6.990000 0.010678
7.000000 0.010521
7.010000 0.010365
7.020000 0.010211
7.030000 0.010060
7.040000 0.009910
7.050000 0.009762
7.060000 0.009615
7.070000 0.009471
7.080000 0.009328
7.090000 0.009187
7.100000 0.009047
7.110000 0.008910
7.120000 0.008774
7.130000 0.008640
7.140000 0.008507
7.150000 0.008376
7.160000 0.008247
7.170000 0.008119
7.180000 0.007993
7.190000 0.007869
7.200000 0.007746
7.210000 0.007624
7.220000 0.007505
7.230000 0.007386
7.240000 0.007269
7.250000 0.007154
7.260000 0.007040
7.270000 0.006928
7.280000 0.006817
7.290000 0.006707
7.300000 0.006599
7.310000 0.006493
7.320000 0.006387
7.330000 0.006283
7.340000 0.006181
7.350000 0.006080
7.360000 0.005980
7.370000 0.005881
7.380000 0.005784
7.390000 0.005688
7.400000 0.005593
7.410000 0.005500
7.420000 0.005408
7.430000 0.005317
7.440000 0.005227
7.450000 0.005139
7.460000 0.005052
7.470000 0.004966
7.480000 0.004881
7.490000 0.004797
7.500000 0.004715
7.510000 0.004634
7.520000 0.004553
7.530000 0.004474
7.540000 0.004396
7.550000 0.004319
7.560000 0.004244
7.570000 0.004169
7.580000 0.004095
7.590000 0.004023
7.600000 0.003951
7.610000 0.003881
7.620000 0.003811
7.630000 0.003743
7.640000 0.003675
7.650000 0.003609
7.660000 0.003543
7.670000 0.003479
7.680000 0.003415
7.690000 0.003353
7.700000 0.003291
7.710000 0.003230
7.720000 0.003170
7.730000 0.003112
7.740000 0.003054
7.750000 0.002996
7.760000 0.002940
7.770000 0.002885
7.780000 0.002830
7.790000 0.002777
7.800000 0.002724
7.810000 0.002672
7.820000 0.002621
7.830000 0.002570
7.840000 0.002521
7.850000 0.002472
7.860000 0.002424
7.870000 0.002377
7.880000 0.002331
7.890000 0.002285
7.900000 0.002240
7.910000 0.002196
7.920000 0.002152
7.930000 0.002110
7.940000 0.002068
7.950000 0.002026
7.960000 0.001986
7.970000 0.001946
7.980000 0.001906
7.990000 0.001868
8.000000 0.001830
8.010000 0.001793
8.020000 0.001756
8.030000 0.001720
8.040000 0.001685
8.050000 0.001650
8.060000 0.001616
8.070000 0.001582
8.080000 0.001549
8.090000 0.001517
8.100000 0.001485
8.110000 0.001454
8.120000 0.001423
8.130000 0.001393
8.140000 0.001364
8.150000 0.001335
8.160000 0.001306
8.170000 0.001278
8.180000 0.001251
8.190000 0.001224
8.200000 0.001198
8.210000 0.001172
8.220000 0.001146
8.230000 0.001121
8.240000 0.001097
8.250000 0.001073
8.260000 0.001050
8.270000 0.001026
8.280000 0.001004
8.290000 0.000982
8.300000 0.000960
8.310000 0.000939
8.320000 0.000918
8.330000 0.000897
8.340000 0.000877
8.350000 0.000858
8.360000 0.000838
8.370000 0.000819
8.380000 0.000801
8.390000 0.000783
8.400000 0.000765
8.410000 0.000748
8.420000 0.000731
8.430000 0.000714
8.440000 0.000697
8.450000 0.000681
8.460000 0.000666
8.470000 0.000650
8.480000 0.000635
8.490000 0.000621
8.500000 0.000606
8.510000 0.000592
8.520000 0.000578
8.530000 0.000565
8.540000 0.000552
8.550000 0.000539
8.560000 0.000526
8.570000 0.000514
8.580000 0.000502
8.590000 0.000490
8.600000 0.000478
8.610000 0.000467
8.620000 0.000456
8.630000 0.000445
8.640000 0.000434
8.650000 0.000424
8.660000 0.000414
8.670000 0.000404
8.680000 0.000394
8.690000 0.000385
8.700000 0.000376
8.710000 0.000367
8.720000 0.000358
8.730000 0.000349
8.740000 0.000341
8.750000 0.000332
8.760000 0.000324
8.770000 0.000316
8.780000 0.000309
8.790000 0.000301
8.800000 0.000294
8.810000 0.000287
8.820000 0.000280
8.830000 0.000273
8.840000 0.000266
8.850000 0.000260
8.860000 0.000253
8.870000 0.000247
8.880000 0.000241
8.890000 0.000235
8.900000 0.000229
8.910000 0.000224
8.920000 0.000218
8.930000 0.000213
8.940000 0.000207
8.950000 0.000202
8.960000 0.000197
8.970000 0.000192
8.980000 0.000187
8.990000 0.000183
9.000000 0.000178
9.010000 0.000174
9.020000 0.000169
9.030000 0.000165
9.040000 0.000161
9.050000 0.000157
9.060000 0.000153
9.070000 0.000149
9.080000 0.000145
9.090000 0.000142
9.100000 0.000138
9.110000 0.000135
9.120000 0.000131
9.130000 0.000128
9.140000 0.000125
9.150000 0.000121
9.160000 0.000118
9.170000 0.000115
9.180000 0.000112
9.190000 0.000109
9.200000 0.000107
9.210000 0.000104
9.220000 0.000101
9.230000 0.000099
9.240000 0.000096
9.250000 0.000094
